SpectraSuite Data File
++++++++++++++++++++++++++++++++++++
Date: Fri Jul 12 17:30:12 ART 2024
User: Javier
Dark Spectrum Present: Yes
Reference Spectrum Present: No
Number of Sampled Component Spectra: 1
Spectrometers: ADUD7991
Integration Time (usec): 90000 (ADUD7991)
Spectra Averaged: 1 (ADUD7991)
Boxcar Smoothing: 0 (ADUD7991)
Correct for Electrical Dark: No (ADUD7991)
Strobe/Lamp Enabled: No (ADUD7991)
Correct for Detector Non-linearity: No (ADUD7991)
Correct for Stray Light: No (ADUD7991)
Number of Pixels in Processed Spectrum: 2048
>>>>>Begin Processed Spectral Data<<<<<
338.97	0.00
339.33	5.00
339.70	-4.00
340.06	4.00
340.42	-2.00
340.79	0.00
341.15	-2.00
341.52	1.00
341.88	-1.00
342.24	1.00
342.61	0.00
342.97	4.00
343.33	5.00
343.70	5.00
344.06	5.00
344.43	-4.00
344.79	3.00
345.15	-3.00
345.52	-5.00
345.88	1.00
346.24	-1.00
346.61	0.00
346.97	-4.00
347.33	-1.00
347.70	0.00
348.06	0.00
348.42	3.00
348.79	-3.00
349.15	-7.00
349.51	1.00
349.88	9.00
350.24	0.00
350.60	-9.00
350.97	-6.00
351.33	1.00
351.69	-2.00
352.05	1.00
352.42	-2.00
352.78	3.00
353.14	-2.00
353.51	6.00
353.87	2.00
354.23	3.00
354.60	-5.00
354.96	1.00
355.32	3.00
355.68	-7.00
356.05	-6.00
356.41	4.00
356.77	3.00
357.13	3.00
357.50	10.00
357.86	3.00
358.22	-1.00
358.58	-1.00
358.95	8.00
359.31	2.00
359.67	7.00
360.03	-1.00
360.40	-4.00
360.76	-5.00
361.12	2.00
361.48	2.00
361.85	4.00
362.21	5.00
362.57	6.00
362.93	-6.00
363.29	3.00
363.66	4.00
364.02	6.00
364.38	8.00
364.74	-5.00
365.10	-1.00
365.47	0.00
365.83	5.00
366.19	2.00
366.55	2.00
366.91	0.00
367.28	5.00
367.64	5.00
368.00	6.00
368.36	8.00
368.72	1.00
369.08	-3.00
369.45	6.00
369.81	6.00
370.17	2.00
370.53	-2.00
370.89	4.00
371.25	10.00
371.62	-2.00
371.98	-2.00
372.34	-1.00
372.70	3.00
373.06	2.00
373.42	8.00
373.78	1.00
374.14	7.00
374.51	4.00
374.87	9.00
375.23	4.00
375.59	9.00
375.95	-1.00
376.31	1.00
376.67	0.00
377.03	5.00
377.39	0.00
377.76	0.00
378.12	3.00
378.48	-1.00
378.84	4.00
379.20	0.00
379.56	-6.00
379.92	3.00
380.28	8.00
380.64	6.00
381.00	-2.00
381.36	2.00
381.72	-3.00
382.08	6.00
382.45	1.00
382.81	4.00
383.17	-1.00
383.53	8.00
383.89	3.00
384.25	-5.00
384.61	2.00
384.97	1.00
385.33	6.00
385.69	4.00
386.05	1.00
386.41	-1.00
386.77	-1.00
387.13	2.00
387.49	1.00
387.85	1.00
388.21	7.00
388.57	4.00
388.93	3.00
389.29	3.00
389.65	3.00
390.01	4.00
390.37	3.00
390.73	1.00
391.09	5.00
391.45	7.00
391.81	0.00
392.17	8.00
392.53	8.00
392.89	1.00
393.25	5.00
393.61	-11.00
393.97	2.00
394.33	3.00
394.69	8.00
395.05	-6.00
395.41	-1.00
395.77	8.00
396.12	3.00
396.48	-4.00
396.84	2.00
397.20	4.00
397.56	-4.00
397.92	8.00
398.28	6.00
398.64	-4.00
399.00	3.00
399.36	1.00
399.72	13.00
400.08	-4.00
400.44	-1.00
400.79	-2.00
401.15	5.00
401.51	6.00
401.87	1.00
402.23	9.00
402.59	1.00
402.95	7.00
403.31	5.00
403.67	1.00
404.02	0.00
404.38	4.00
404.74	3.00
405.10	6.00
405.46	7.00
405.82	5.00
406.18	10.00
406.53	1.00
406.89	6.00
407.25	5.00
407.61	-2.00
407.97	7.00
408.33	6.00
408.69	4.00
409.04	13.00
409.40	8.00
409.76	11.00
410.12	16.00
410.48	6.00
410.83	-1.00
411.19	10.00
411.55	8.00
411.91	7.00
412.27	6.00
412.63	10.00
412.98	7.00
413.34	13.00
413.70	2.00
414.06	1.00
414.41	13.00
414.77	14.00
415.13	8.00
415.49	4.00
415.85	5.00
416.20	9.00
416.56	12.00
416.92	7.00
417.28	11.00
417.63	12.00
417.99	8.00
418.35	11.00
418.71	9.00
419.06	9.00
419.42	3.00
419.78	19.00
420.14	15.00
420.49	11.00
420.85	17.00
421.21	16.00
421.57	14.00
421.92	19.00
422.28	11.00
422.64	19.00
422.99	18.00
423.35	19.00
423.71	21.00
424.06	8.00
424.42	14.00
424.78	16.00
425.14	15.00
425.49	11.00
425.85	22.00
426.21	16.00
426.56	15.00
426.92	10.00
427.28	19.00
427.63	19.00
427.99	16.00
428.35	19.00
428.70	19.00
429.06	18.00
429.42	20.00
429.77	23.00
430.13	19.00
430.49	23.00
430.84	17.00
431.20	28.00
431.55	36.00
431.91	26.00
432.27	19.00
432.62	25.00
432.98	30.00
433.34	17.00
433.69	24.00
434.05	22.00
434.40	28.00
434.76	27.00
435.12	21.00
435.47	23.00
435.83	29.00
436.18	26.00
436.54	20.00
436.90	27.00
437.25	32.00
437.61	27.00
437.96	26.00
438.32	28.00
438.67	24.00
439.03	25.00
439.39	33.00
439.74	28.00
440.10	31.00
440.45	27.00
440.81	38.00
441.16	34.00
441.52	28.00
441.87	31.00
442.23	30.00
442.59	39.00
442.94	35.00
443.30	29.00
443.65	35.00
444.01	30.00
444.36	33.00
444.72	39.00
445.07	34.00
445.43	43.00
445.78	29.00
446.14	33.00
446.49	35.00
446.85	36.00
447.20	39.00
447.56	33.00
447.91	37.00
448.27	26.00
448.62	46.00
448.98	37.00
449.33	38.00
449.69	40.00
450.04	44.00
450.39	35.00
450.75	52.00
451.10	34.00
451.46	45.00
451.81	40.00
452.17	44.00
452.52	45.00
452.88	48.00
453.23	44.00
453.58	48.00
453.94	50.00
454.29	56.00
454.65	43.00
455.00	56.00
455.36	42.00
455.71	55.00
456.06	46.00
456.42	45.00
456.77	56.00
457.13	52.00
457.48	60.00
457.83	48.00
458.19	57.00
458.54	52.00
458.90	45.00
459.25	53.00
459.60	55.00
459.96	53.00
460.31	59.00
460.66	53.00
461.02	52.00
461.37	51.00
461.73	54.00
462.08	58.00
462.43	57.00
462.79	60.00
463.14	55.00
463.49	49.00
463.85	55.00
464.20	61.00
464.55	60.00
464.91	62.00
465.26	64.00
465.61	68.00
465.97	62.00
466.32	56.00
466.67	58.00
467.03	62.00
467.38	61.00
467.73	55.00
468.08	63.00
468.44	63.00
468.79	66.00
469.14	56.00
469.50	57.00
469.85	69.00
470.20	72.00
470.55	64.00
470.91	71.00
471.26	76.00
471.61	70.00
471.97	73.00
472.32	59.00
472.67	76.00
473.02	78.00
473.38	79.00
473.73	77.00
474.08	71.00
474.43	86.00
474.78	79.00
475.14	77.00
475.49	84.00
475.84	80.00
476.19	89.00
476.55	86.00
476.90	87.00
477.25	86.00
477.60	90.00
477.95	86.00
478.31	94.00
478.66	94.00
479.01	89.00
479.36	103.00
479.71	100.00
480.07	95.00
480.42	90.00
480.77	100.00
481.12	98.00
481.47	94.00
481.82	101.00
482.18	97.00
482.53	97.00
482.88	100.00
483.23	112.00
483.58	104.00
483.93	100.00
484.29	113.00
484.64	116.00
484.99	118.00
485.34	105.00
485.69	110.00
486.04	120.00
486.39	119.00
486.74	126.00
487.10	122.00
487.45	120.00
487.80	119.00
488.15	112.00
488.50	121.00
488.85	121.00
489.20	131.00
489.55	134.00
489.90	122.00
490.26	135.00
490.61	126.00
490.96	130.00
491.31	131.00
491.66	130.00
492.01	141.00
492.36	132.00
492.71	128.00
493.06	133.00
493.41	133.00
493.76	137.00
494.11	130.00
494.46	141.00
494.81	149.00
495.16	136.00
495.51	144.00
495.86	143.00
496.21	140.00
496.56	151.00
496.91	151.00
497.27	156.00
497.62	151.00
497.97	148.00
498.32	142.00
498.67	148.00
499.02	153.00
499.37	141.00
499.72	152.00
500.07	161.00
500.42	151.00
500.77	149.00
501.11	165.00
501.46	153.00
501.81	146.00
502.16	162.00
502.51	158.00
502.86	164.00
503.21	155.00
503.56	171.00
503.91	170.00
504.26	167.00
504.61	165.00
504.96	159.00
505.31	169.00
505.66	171.00
506.01	166.00
506.36	163.00
506.71	166.00
507.06	168.00
507.41	169.00
507.75	179.00
508.10	175.00
508.45	177.00
508.80	169.00
509.15	174.00
509.50	177.00
509.85	181.00
510.20	176.00
510.55	171.00
510.90	190.00
511.24	179.00
511.59	186.00
511.94	187.00
512.29	184.00
512.64	183.00
512.99	179.00
513.34	183.00
513.68	179.00
514.03	185.00
514.38	185.00
514.73	199.00
515.08	193.00
515.43	192.00
515.77	193.00
516.12	192.00
516.47	197.00
516.82	197.00
517.17	202.00
517.52	200.00
517.86	210.00
518.21	204.00
518.56	206.00
518.91	203.00
519.26	203.00
519.60	199.00
519.95	205.00
520.30	204.00
520.65	219.00
521.00	211.00
521.34	204.00
521.69	207.00
522.04	215.00
522.39	215.00
522.73	203.00
523.08	214.00
523.43	207.00
523.78	215.00
524.12	212.00
524.47	211.00
524.82	219.00
525.17	211.00
525.51	211.00
525.86	224.00
526.21	215.00
526.56	221.00
526.90	225.00
527.25	211.00
527.60	220.00
527.94	220.00
528.29	222.00
528.64	205.00
528.99	223.00
529.33	235.00
529.68	228.00
530.03	231.00
530.37	229.00
530.72	229.00
531.07	227.00
531.41	237.00
531.76	233.00
532.11	230.00
532.45	238.00
532.80	228.00
533.15	232.00
533.49	225.00
533.84	232.00
534.19	234.00
534.53	236.00
534.88	230.00
535.23	237.00
535.57	238.00
535.92	245.00
536.26	241.00
536.61	247.00
536.96	238.00
537.30	240.00
537.65	246.00
537.99	235.00
538.34	246.00
538.69	239.00
539.03	253.00
539.38	250.00
539.72	251.00
540.07	244.00
540.42	244.00
540.76	245.00
541.11	253.00
541.45	251.00
541.80	250.00
542.14	246.00
542.49	262.00
542.84	255.00
543.18	243.00
543.53	240.00
543.87	258.00
544.22	262.00
544.56	259.00
544.91	252.00
545.25	258.00
545.60	254.00
545.94	254.00
546.29	252.00
546.63	263.00
546.98	255.00
547.32	262.00
547.67	262.00
548.01	261.00
548.36	254.00
548.70	259.00
549.05	268.00
549.39	274.00
549.74	266.00
550.08	267.00
550.43	267.00
550.77	270.00
551.12	269.00
551.46	271.00
551.81	269.00
552.15	272.00
552.50	275.00
552.84	276.00
553.18	273.00
553.53	287.00
553.87	284.00
554.22	275.00
554.56	271.00
554.91	267.00
555.25	273.00
555.59	287.00
555.94	276.00
556.28	282.00
556.63	282.00
556.97	277.00
557.32	276.00
557.66	274.00
558.00	284.00
558.35	274.00
558.69	286.00
559.03	282.00
559.38	286.00
559.72	290.00
560.07	282.00
560.41	282.00
560.75	280.00
561.10	275.00
561.44	291.00
561.78	305.00
562.13	289.00
562.47	291.00
562.81	291.00
563.16	297.00
563.50	299.00
563.84	298.00
564.19	297.00
564.53	287.00
564.87	297.00
565.22	291.00
565.56	286.00
565.90	303.00
566.25	304.00
566.59	300.00
566.93	314.00
567.28	299.00
567.62	308.00
567.96	311.00
568.30	305.00
568.65	313.00
568.99	314.00
569.33	312.00
569.68	313.00
570.02	315.00
570.36	304.00
570.70	313.00
571.05	309.00
571.39	302.00
571.73	306.00
572.07	312.00
572.42	308.00
572.76	313.00
573.10	310.00
573.44	318.00
573.78	316.00
574.13	317.00
574.47	322.00
574.81	326.00
575.15	303.00
575.49	315.00
575.84	319.00
576.18	316.00
576.52	309.00
576.86	311.00
577.20	334.00
577.55	303.00
577.89	315.00
578.23	314.00
578.57	309.00
578.91	296.00
579.25	299.00
579.60	302.00
579.94	309.00
580.28	312.00
580.62	309.00
580.96	309.00
581.30	315.00
581.65	315.00
581.99	308.00
582.33	310.00
582.67	314.00
583.01	323.00
583.35	327.00
583.69	333.00
584.03	325.00
584.37	327.00
584.72	338.00
585.06	330.00
585.40	338.00
585.74	319.00
586.08	331.00
586.42	332.00
586.76	315.00
587.10	319.00
587.44	326.00
587.78	334.00
588.12	321.00
588.46	322.00
588.80	332.00
589.15	322.00
589.49	326.00
589.83	324.00
590.17	322.00
590.51	340.00
590.85	330.00
591.19	341.00
591.53	328.00
591.87	334.00
592.21	325.00
592.55	335.00
592.89	341.00
593.23	329.00
593.57	322.00
593.91	325.00
594.25	340.00
594.59	340.00
594.93	334.00
595.27	339.00
595.61	331.00
595.95	329.00
596.29	333.00
596.63	352.00
596.97	340.00
597.31	335.00
597.65	338.00
597.99	345.00
598.32	330.00
598.66	339.00
599.00	349.00
599.34	345.00
599.68	346.00
600.02	353.00
600.36	345.00
600.70	334.00
601.04	341.00
601.38	335.00
601.72	342.00
602.06	347.00
602.40	341.00
602.73	346.00
603.07	334.00
603.41	331.00
603.75	340.00
604.09	329.00
604.43	346.00
604.77	343.00
605.11	336.00
605.45	345.00
605.78	334.00
606.12	347.00
606.46	350.00
606.80	348.00
607.14	359.00
607.48	347.00
607.81	336.00
608.15	342.00
608.49	344.00
608.83	347.00
609.17	342.00
609.51	342.00
609.84	360.00
610.18	359.00
610.52	351.00
610.86	344.00
611.20	360.00
611.53	337.00
611.87	349.00
612.21	359.00
612.55	363.00
612.89	358.00
613.22	344.00
613.56	348.00
613.90	351.00
614.24	346.00
614.57	357.00
614.91	352.00
615.25	361.00
615.59	341.00
615.92	341.00
616.26	352.00
616.60	357.00
616.94	351.00
617.27	367.00
617.61	363.00
617.95	353.00
618.29	352.00
618.62	375.00
618.96	348.00
619.30	361.00
619.63	362.00
619.97	351.00
620.31	350.00
620.64	357.00
620.98	365.00
621.32	362.00
621.66	366.00
621.99	360.00
622.33	354.00
622.67	341.00
623.00	359.00
623.34	362.00
623.68	360.00
624.01	380.00
624.35	366.00
624.68	372.00
625.02	367.00
625.36	362.00
625.69	359.00
626.03	362.00
626.37	355.00
626.70	355.00
627.04	356.00
627.37	371.00
627.71	349.00
628.05	347.00
628.38	353.00
628.72	359.00
629.05	350.00
629.39	370.00
629.73	373.00
630.06	364.00
630.40	374.00
630.73	364.00
631.07	361.00
631.41	354.00
631.74	359.00
632.08	364.00
632.41	368.00
632.75	361.00
633.08	361.00
633.42	357.00
633.75	357.00
634.09	366.00
634.42	364.00
634.76	367.00
635.09	363.00
635.43	359.00
635.76	375.00
636.10	353.00
636.43	364.00
636.77	356.00
637.10	362.00
637.44	350.00
637.77	357.00
638.11	373.00
638.44	363.00
638.78	365.00
639.11	366.00
639.45	370.00
639.78	362.00
640.12	364.00
640.45	361.00
640.79	365.00
641.12	358.00
641.46	359.00
641.79	365.00
642.12	362.00
642.46	360.00
642.79	351.00
643.13	357.00
643.46	356.00
643.80	360.00
644.13	363.00
644.46	353.00
644.80	365.00
645.13	357.00
645.47	351.00
645.80	354.00
646.13	366.00
646.47	371.00
646.80	374.00
647.13	371.00
647.47	360.00
647.80	350.00
648.14	347.00
648.47	359.00
648.80	352.00
649.14	363.00
649.47	362.00
649.80	352.00
650.14	364.00
650.47	349.00
650.80	347.00
651.14	356.00
651.47	350.00
651.80	358.00
652.14	351.00
652.47	370.00
652.80	353.00
653.14	361.00
653.47	365.00
653.80	345.00
654.13	348.00
654.47	356.00
654.80	362.00
655.13	366.00
655.47	356.00
655.80	346.00
656.13	359.00
656.46	352.00
656.80	350.00
657.13	356.00
657.46	354.00
657.79	362.00
658.13	337.00
658.46	346.00
658.79	351.00
659.12	352.00
659.45	348.00
659.79	354.00
660.12	351.00
660.45	364.00
660.78	353.00
661.12	353.00
661.45	349.00
661.78	349.00
662.11	348.00
662.44	349.00
662.77	346.00
663.11	352.00
663.44	343.00
663.77	341.00
664.10	342.00
664.43	355.00
664.77	330.00
665.10	336.00
665.43	349.00
665.76	323.00
666.09	339.00
666.42	343.00
666.75	337.00
667.08	339.00
667.42	348.00
667.75	341.00
668.08	342.00
668.41	349.00
668.74	345.00
669.07	342.00
669.40	346.00
669.73	334.00
670.06	353.00
670.40	345.00
670.73	331.00
671.06	340.00
671.39	353.00
671.72	336.00
672.05	337.00
672.38	345.00
672.71	340.00
673.04	335.00
673.37	330.00
673.70	348.00
674.03	334.00
674.36	331.00
674.69	343.00
675.02	335.00
675.35	334.00
675.68	343.00
676.01	346.00
676.34	340.00
676.67	341.00
677.00	343.00
677.33	343.00
677.66	354.00
677.99	347.00
678.32	340.00
678.65	341.00
678.98	339.00
679.31	337.00
679.64	353.00
679.97	332.00
680.30	347.00
680.63	343.00
680.96	328.00
681.29	331.00
681.62	337.00
681.95	334.00
682.28	348.00
682.61	336.00
682.94	338.00
683.27	336.00
683.60	339.00
683.93	330.00
684.25	342.00
684.58	343.00
684.91	330.00
685.24	337.00
685.57	331.00
685.90	328.00
686.23	311.00
686.56	339.00
686.89	349.00
687.21	342.00
687.54	320.00
687.87	331.00
688.20	323.00
688.53	333.00
688.86	347.00
689.19	337.00
689.51	338.00
689.84	328.00
690.17	338.00
690.50	335.00
690.83	341.00
691.16	343.00
691.48	329.00
691.81	335.00
692.14	347.00
692.47	340.00
692.80	331.00
693.12	341.00
693.45	323.00
693.78	331.00
694.11	324.00
694.44	330.00
694.76	328.00
695.09	331.00
695.42	322.00
695.75	323.00
696.07	326.00
696.40	331.00
696.73	319.00
697.06	331.00
697.38	312.00
697.71	316.00
698.04	324.00
698.37	314.00
698.69	328.00
699.02	333.00
699.35	324.00
699.67	316.00
700.00	330.00
700.33	318.00
700.66	323.00
700.98	308.00
701.31	321.00
701.64	317.00
701.96	307.00
702.29	314.00
702.62	315.00
702.94	318.00
703.27	327.00
703.60	310.00
703.92	313.00
704.25	314.00
704.58	314.00
704.90	319.00
705.23	302.00
705.56	313.00
705.88	303.00
706.21	307.00
706.53	321.00
706.86	316.00
707.19	309.00
707.51	302.00
707.84	317.00
708.16	304.00
708.49	299.00
708.82	306.00
709.14	298.00
709.47	312.00
709.79	292.00
710.12	312.00
710.45	304.00
710.77	295.00
711.10	290.00
711.42	305.00
711.75	289.00
712.07	288.00
712.40	309.00
712.72	294.00
713.05	307.00
713.37	283.00
713.70	300.00
714.03	295.00
714.35	307.00
714.68	298.00
715.00	286.00
715.33	285.00
715.65	282.00
715.98	277.00
716.30	283.00
716.63	294.00
716.95	273.00
717.28	279.00
717.60	277.00
717.92	281.00
718.25	283.00
718.57	267.00
718.90	285.00
719.22	274.00
719.55	270.00
719.87	264.00
720.20	273.00
720.52	273.00
720.84	272.00
721.17	267.00
721.49	267.00
721.82	267.00
722.14	268.00
722.47	259.00
722.79	266.00
723.11	262.00
723.44	266.00
723.76	258.00
724.09	265.00
724.41	267.00
724.73	259.00
725.06	263.00
725.38	256.00
725.70	263.00
726.03	260.00
726.35	263.00
726.67	247.00
727.00	263.00
727.32	251.00
727.65	245.00
727.97	261.00
728.29	247.00
728.61	255.00
728.94	250.00
729.26	247.00
729.58	240.00
729.91	244.00
730.23	247.00
730.55	247.00
730.88	258.00
731.20	257.00
731.52	256.00
731.84	249.00
732.17	259.00
732.49	252.00
732.81	245.00
733.14	246.00
733.46	251.00
733.78	257.00
734.10	259.00
734.43	253.00
734.75	248.00
735.07	249.00
735.39	245.00
735.72	254.00
736.04	258.00
736.36	260.00
736.68	256.00
737.00	251.00
737.33	253.00
737.65	249.00
737.97	260.00
738.29	253.00
738.61	252.00
738.94	259.00
739.26	260.00
739.58	264.00
739.90	262.00
740.22	262.00
740.54	259.00
740.87	258.00
741.19	262.00
741.51	248.00
741.83	251.00
742.15	255.00
742.47	247.00
742.79	260.00
743.12	255.00
743.44	257.00
743.76	255.00
744.08	260.00
744.40	263.00
744.72	269.00
745.04	258.00
745.36	264.00
745.68	275.00
746.00	264.00
746.33	269.00
746.65	260.00
746.97	258.00
747.29	266.00
747.61	259.00
747.93	258.00
748.25	261.00
748.57	276.00
748.89	258.00
749.21	280.00
749.53	279.00
749.85	264.00
750.17	274.00
750.49	268.00
750.81	292.00
751.13	282.00
751.45	279.00
751.77	283.00
752.09	283.00
752.41	278.00
752.73	271.00
753.05	271.00
753.37	287.00
753.69	281.00
754.01	290.00
754.33	294.00
754.65	302.00
754.97	289.00
755.29	294.00
755.61	295.00
755.93	295.00
756.25	304.00
756.57	301.00
756.89	305.00
757.21	297.00
757.53	304.00
757.84	302.00
758.16	306.00
758.48	305.00
758.80	315.00
759.12	329.00
759.44	313.00
759.76	325.00
760.08	319.00
760.40	329.00
760.71	334.00
761.03	326.00
761.35	324.00
761.67	335.00
761.99	349.00
762.31	350.00
762.63	348.00
762.94	345.00
763.26	351.00
763.58	350.00
763.90	354.00
764.22	354.00
764.54	368.00
764.85	355.00
765.17	373.00
765.49	373.00
765.81	366.00
766.13	368.00
766.44	377.00
766.76	373.00
767.08	388.00
767.40	384.00
767.72	404.00
768.03	400.00
768.35	386.00
768.67	401.00
768.99	412.00
769.30	416.00
769.62	410.00
769.94	416.00
770.26	426.00
770.57	434.00
770.89	441.00
771.21	431.00
771.53	443.00
771.84	451.00
772.16	447.00
772.48	449.00
772.79	463.00
773.11	470.00
773.43	484.00
773.75	455.00
774.06	497.00
774.38	474.00
774.70	478.00
775.01	492.00
775.33	489.00
775.65	507.00
775.96	497.00
776.28	506.00
776.59	513.00
776.91	514.00
777.23	524.00
777.54	527.00
777.86	526.00
778.18	544.00
778.49	540.00
778.81	549.00
779.13	545.00
779.44	558.00
779.76	565.00
780.07	564.00
780.39	581.00
780.71	604.00
781.02	590.00
781.34	584.00
781.65	612.00
781.97	595.00
782.28	622.00
782.60	616.00
782.91	623.00
783.23	630.00
783.55	655.00
783.86	656.00
784.18	645.00
784.49	655.00
784.81	682.00
785.12	679.00
785.44	680.00
785.75	678.00
786.07	685.00
786.38	708.00
786.70	708.00
787.01	721.00
787.33	733.00
787.64	740.00
787.96	752.00
788.27	759.00
788.59	772.00
788.90	778.00
789.22	794.00
789.53	795.00
789.85	800.00
790.16	802.00
790.47	783.00
790.79	809.00
791.10	833.00
791.42	842.00
791.73	840.00
792.05	861.00
792.36	863.00
792.67	872.00
792.99	866.00
793.30	885.00
793.62	889.00
793.93	917.00
794.24	927.00
794.56	934.00
794.87	963.00
795.18	974.00
795.50	968.00
795.81	977.00
796.13	1005.00
796.44	998.00
796.75	1018.00
797.07	1028.00
797.38	1041.00
797.69	1043.00
798.01	1035.00
798.32	1079.00
798.63	1095.00
798.95	1095.00
799.26	1106.00
799.57	1102.00
799.89	1098.00
800.20	1139.00
800.51	1138.00
800.82	1136.00
801.14	1155.00
801.45	1166.00
801.76	1188.00
802.08	1197.00
802.39	1203.00
802.70	1216.00
803.01	1193.00
803.33	1208.00
803.64	1215.00
803.95	1262.00
804.26	1260.00
804.57	1243.00
804.89	1264.00
805.20	1269.00
805.51	1313.00
805.82	1277.00
806.14	1310.00
806.45	1340.00
806.76	1352.00
807.07	1320.00
807.38	1335.00
807.70	1353.00
808.01	1355.00
808.32	1374.00
808.63	1381.00
808.94	1385.00
809.25	1401.00
809.57	1405.00
809.88	1385.00
810.19	1410.00
810.50	1424.00
810.81	1438.00
811.12	1432.00
811.43	1463.00
811.75	1453.00
812.06	1444.00
812.37	1449.00
812.68	1469.00
812.99	1487.00
813.30	1513.00
813.61	1500.00
813.92	1505.00
814.23	1517.00
814.54	1486.00
814.85	1525.00
815.17	1557.00
815.48	1550.00
815.79	1562.00
816.10	1568.00
816.41	1577.00
816.72	1555.00
817.03	1580.00
817.34	1561.00
817.65	1585.00
817.96	1618.00
818.27	1626.00
818.58	1620.00
818.89	1619.00
819.20	1657.00
819.51	1654.00
819.82	1628.00
820.13	1652.00
820.44	1666.00
820.75	1668.00
821.06	1663.00
821.37	1682.00
821.68	1706.00
821.99	1702.00
822.30	1694.00
822.61	1688.00
822.92	1687.00
823.23	1713.00
823.54	1721.00
823.85	1731.00
824.15	1691.00
824.46	1743.00
824.77	1723.00
825.08	1730.00
825.39	1761.00
825.70	1757.00
826.01	1765.00
826.32	1775.00
826.63	1751.00
826.94	1786.00
827.24	1781.00
827.55	1795.00
827.86	1793.00
828.17	1816.00
828.48	1788.00
828.79	1846.00
829.10	1832.00
829.41	1838.00
829.71	1809.00
830.02	1842.00
830.33	1864.00
830.64	1890.00
830.95	1866.00
831.25	1871.00
831.56	1859.00
831.87	1900.00
832.18	1902.00
832.49	1897.00
832.80	1897.00
833.10	1896.00
833.41	1895.00
833.72	1896.00
834.03	1907.00
834.33	1934.00
834.64	1909.00
834.95	1927.00
835.26	1947.00
835.56	1956.00
835.87	1943.00
836.18	1948.00
836.49	1982.00
836.79	1980.00
837.10	1942.00
837.41	1956.00
837.72	2005.00
838.02	1945.00
838.33	2008.00
838.64	1978.00
838.94	1974.00
839.25	1998.00
839.56	2017.00
839.86	2020.00
840.17	2045.00
840.48	2028.00
840.78	2026.00
841.09	2041.00
841.40	2034.00
841.70	2053.00
842.01	2060.00
842.32	2059.00
842.62	2062.00
842.93	2093.00
843.24	2081.00
843.54	2077.00
843.85	2094.00
844.15	2121.00
844.46	2072.00
844.77	2080.00
845.07	2106.00
845.38	2107.00
845.68	2129.00
845.99	2138.00
846.30	2146.00
846.60	2161.00
846.91	2144.00
847.21	2136.00
847.52	2183.00
847.82	2152.00
848.13	2167.00
848.43	2165.00
848.74	2173.00
849.05	2194.00
849.35	2184.00
849.66	2187.00
849.96	2201.00
850.27	2194.00
850.57	2197.00
850.88	2207.00
851.18	2188.00
851.49	2190.00
851.79	2235.00
852.10	2209.00
852.40	2230.00
852.71	2217.00
853.01	2226.00
853.32	2249.00
853.62	2248.00
853.92	2245.00
854.23	2249.00
854.53	2245.00
854.84	2249.00
855.14	2219.00
855.45	2258.00
855.75	2269.00
856.05	2290.00
856.36	2244.00
856.66	2270.00
856.97	2288.00
857.27	2280.00
857.57	2281.00
857.88	2288.00
858.18	2282.00
858.49	2305.00
858.79	2348.00
859.09	2304.00
859.40	2309.00
859.70	2290.00
860.00	2309.00
860.31	2313.00
860.61	2310.00
860.92	2337.00
861.22	2310.00
861.52	2347.00
861.82	2314.00
862.13	2314.00
862.43	2296.00
862.73	2326.00
863.04	2333.00
863.34	2317.00
863.64	2342.00
863.95	2317.00
864.25	2336.00
864.55	2349.00
864.85	2335.00
865.16	2342.00
865.46	2330.00
865.76	2317.00
866.07	2328.00
866.37	2357.00
866.67	2311.00
866.97	2313.00
867.27	2316.00
867.58	2330.00
867.88	2322.00
868.18	2310.00
868.48	2332.00
868.79	2343.00
869.09	2313.00
869.39	2308.00
869.69	2304.00
869.99	2299.00
870.30	2305.00
870.60	2282.00
870.90	2282.00
871.20	2264.00
871.50	2301.00
871.80	2275.00
872.11	2266.00
872.41	2270.00
872.71	2250.00
873.01	2246.00
873.31	2242.00
873.61	2258.00
873.91	2243.00
874.21	2240.00
874.52	2224.00
874.82	2229.00
875.12	2231.00
875.42	2221.00
875.72	2205.00
876.02	2199.00
876.32	2216.00
876.62	2180.00
876.92	2176.00
877.22	2213.00
877.52	2189.00
877.83	2178.00
878.13	2206.00
878.43	2177.00
878.73	2175.00
879.03	2180.00
879.33	2177.00
879.63	2200.00
879.93	2188.00
880.23	2163.00
880.53	2181.00
880.83	2194.00
881.13	2161.00
881.43	2203.00
881.73	2163.00
882.03	2196.00
882.33	2202.00
882.63	2203.00
882.93	2173.00
883.23	2194.00
883.53	2196.00
883.83	2203.00
884.13	2218.00
884.42	2195.00
884.72	2205.00
885.02	2211.00
885.32	2202.00
885.62	2219.00
885.92	2201.00
886.22	2183.00
886.52	2210.00
886.82	2209.00
887.12	2221.00
887.42	2229.00
887.72	2259.00
888.01	2226.00
888.31	2213.00
888.61	2220.00
888.91	2242.00
889.21	2203.00
889.51	2226.00
889.81	2228.00
890.10	2205.00
890.40	2251.00
890.70	2248.00
891.00	2210.00
891.30	2273.00
891.60	2242.00
891.89	2247.00
892.19	2225.00
892.49	2241.00
892.79	2218.00
893.09	2250.00
893.38	2224.00
893.68	2213.00
893.98	2222.00
894.28	2213.00
894.58	2210.00
894.87	2213.00
895.17	2235.00
895.47	2220.00
895.77	2204.00
896.06	2186.00
896.36	2183.00
896.66	2194.00
896.96	2171.00
897.25	2177.00
897.55	2191.00
897.85	2169.00
898.14	2166.00
898.44	2213.00
898.74	2178.00
899.04	2198.00
899.33	2153.00
899.63	2153.00
899.93	2160.00
900.22	2157.00
900.52	2182.00
900.82	2135.00
901.11	2154.00
901.41	2139.00
901.71	2122.00
902.00	2083.00
902.30	2146.00
902.59	2129.00
902.89	2108.00
903.19	2079.00
903.48	2069.00
903.78	2070.00
904.08	2048.00
904.37	2061.00
904.67	2069.00
904.96	2047.00
905.26	2064.00
905.55	2021.00
905.85	2025.00
906.15	1996.00
906.44	2058.00
906.74	2003.00
907.03	1978.00
907.33	1996.00
907.62	1983.00
907.92	1994.00
908.21	1994.00
908.51	1968.00
908.80	1962.00
909.10	1951.00
909.40	1944.00
909.69	1935.00
909.99	1911.00
910.28	1930.00
910.57	1896.00
910.87	1885.00
911.16	1892.00
911.46	1869.00
911.75	1855.00
912.05	1835.00
912.34	1875.00
912.64	1847.00
912.93	1851.00
913.23	1827.00
913.52	1833.00
913.82	1810.00
914.11	1808.00
914.40	1797.00
914.70	1783.00
914.99	1744.00
915.29	1753.00
915.58	1757.00
915.87	1715.00
916.17	1717.00
916.46	1742.00
916.76	1728.00
917.05	1675.00
917.34	1685.00
917.64	1664.00
917.93	1670.00
918.22	1641.00
918.52	1640.00
918.81	1640.00
919.10	1620.00
919.40	1600.00
919.69	1584.00
919.98	1587.00
920.28	1561.00
920.57	1537.00
920.86	1535.00
921.16	1536.00
921.45	1525.00
921.74	1502.00
922.04	1481.00
922.33	1513.00
922.62	1470.00
922.91	1442.00
923.21	1453.00
923.50	1424.00
923.79	1404.00
924.08	1410.00
924.38	1388.00
924.67	1373.00
924.96	1347.00
925.25	1361.00
925.55	1344.00
925.84	1320.00
926.13	1300.00
926.42	1279.00
926.71	1292.00
927.01	1267.00
927.30	1258.00
927.59	1224.00
927.88	1224.00
928.17	1208.00
928.46	1201.00
928.76	1180.00
929.05	1150.00
929.34	1162.00
929.63	1152.00
929.92	1145.00
930.21	1125.00
930.50	1091.00
930.80	1070.00
931.09	1077.00
931.38	1037.00
931.67	1009.00
931.96	990.00
932.25	977.00
932.54	988.00
932.83	927.00
933.12	909.00
933.41	898.00
933.71	867.00
934.00	854.00
934.29	821.00
934.58	802.00
934.87	778.00
935.16	757.00
935.45	707.00
935.74	685.00
936.03	673.00
936.32	653.00
936.61	629.00
936.90	599.00
937.19	575.00
937.48	552.00
937.77	524.00
938.06	509.00
938.35	483.00
938.64	471.00
938.93	456.00
939.22	409.00
939.51	414.00
939.80	407.00
940.09	399.00
940.38	364.00
940.67	355.00
940.96	329.00
941.25	342.00
941.53	320.00
941.82	307.00
942.11	308.00
942.40	300.00
942.69	301.00
942.98	283.00
943.27	281.00
943.56	278.00
943.85	265.00
944.14	265.00
944.42	269.00
944.71	272.00
945.00	288.00
945.29	276.00
945.58	278.00
945.87	270.00
946.16	281.00
946.44	274.00
946.73	276.00
947.02	270.00
947.31	281.00
947.60	295.00
947.89	295.00
948.17	294.00
948.46	289.00
948.75	310.00
949.04	327.00
949.32	308.00
949.61	304.00
949.90	323.00
950.19	311.00
950.48	331.00
950.76	333.00
951.05	333.00
951.34	338.00
951.63	350.00
951.91	359.00
952.20	349.00
952.49	360.00
952.77	362.00
953.06	363.00
953.35	354.00
953.64	379.00
953.92	381.00
954.21	395.00
954.50	391.00
954.78	391.00
955.07	398.00
955.36	413.00
955.64	409.00
955.93	404.00
956.22	407.00
956.50	417.00
956.79	420.00
957.08	423.00
957.36	435.00
957.65	424.00
957.93	411.00
958.22	419.00
958.51	424.00
958.79	433.00
959.08	435.00
959.36	448.00
959.65	449.00
959.94	440.00
960.22	450.00
960.51	440.00
960.79	446.00
961.08	453.00
961.36	470.00
961.65	450.00
961.94	453.00
962.22	456.00
962.51	463.00
962.79	460.00
963.08	469.00
963.36	478.00
963.65	459.00
963.93	459.00
964.22	467.00
964.50	482.00
964.79	480.00
965.07	463.00
965.36	464.00
965.64	467.00
965.93	458.00
966.21	460.00
966.49	459.00
966.78	464.00
967.06	473.00
967.35	461.00
967.63	453.00
967.92	475.00
968.20	459.00
968.48	474.00
968.77	464.00
969.05	473.00
969.34	458.00
969.62	459.00
969.90	458.00
970.19	461.00
970.47	469.00
970.76	465.00
971.04	458.00
971.32	464.00
971.61	457.00
971.89	453.00
972.17	447.00
972.46	445.00
972.74	451.00
973.02	447.00
973.31	442.00
973.59	437.00
973.87	436.00
974.16	439.00
974.44	446.00
974.72	449.00
975.00	432.00
975.29	425.00
975.57	436.00
975.85	420.00
976.14	435.00
976.42	417.00
976.70	435.00
976.98	415.00
977.27	425.00
977.55	426.00
977.83	414.00
978.11	410.00
978.39	430.00
978.68	426.00
978.96	403.00
979.24	408.00
979.52	410.00
979.81	414.00
980.09	396.00
980.37	397.00
980.65	403.00
980.93	391.00
981.21	402.00
981.50	394.00
981.78	388.00
982.06	391.00
982.34	392.00
982.62	389.00
982.90	391.00
983.18	395.00
983.47	387.00
983.75	381.00
984.03	372.00
984.31	361.00
984.59	365.00
984.87	375.00
985.15	358.00
985.43	374.00
985.71	352.00
985.99	357.00
986.27	366.00
986.55	351.00
986.84	357.00
987.12	351.00
987.40	352.00
987.68	350.00
987.96	349.00
988.24	355.00
988.52	328.00
988.80	336.00
989.08	338.00
989.36	352.00
989.64	326.00
989.92	337.00
990.20	313.00
990.48	318.00
990.76	329.00
991.04	323.00
991.32	321.00
991.60	330.00
991.88	318.00
992.16	310.00
992.43	316.00
992.71	317.00
992.99	305.00
993.27	298.00
993.55	304.00
993.83	293.00
994.11	298.00
994.39	297.00
994.67	290.00
994.95	292.00
995.23	303.00
995.50	296.00
995.78	293.00
996.06	286.00
996.34	286.00
996.62	271.00
996.90	274.00
997.18	285.00
997.45	266.00
997.73	272.00
998.01	262.00
998.29	266.00
998.57	270.00
998.85	262.00
999.12	268.00
999.40	267.00
999.68	256.00
999.96	256.00
1000.24	253.00
1000.51	260.00
1000.79	262.00
1001.07	248.00
1001.35	241.00
1001.62	238.00
1001.90	229.00
1002.18	243.00
1002.46	241.00
1002.73	238.00
1003.01	239.00
1003.29	233.00
1003.56	230.00
1003.84	238.00
1004.12	223.00
1004.40	228.00
1004.67	216.00
1004.95	220.00
>>>>>End Processed Spectral Data<<<<<
