SpectraSuite Data File
++++++++++++++++++++++++++++++++++++
Date: Thu Jul 04 13:38:26 ART 2024
User: Javier
Dark Spectrum Present: Yes
Reference Spectrum Present: No
Number of Sampled Component Spectra: 1
Spectrometers: ADUD7991
Integration Time (usec): 20000000 (ADUD7991)
Spectra Averaged: 1 (ADUD7991)
Boxcar Smoothing: 0 (ADUD7991)
Correct for Electrical Dark: No (ADUD7991)
Strobe/Lamp Enabled: No (ADUD7991)
Correct for Detector Non-linearity: No (ADUD7991)
Correct for Stray Light: No (ADUD7991)
Number of Pixels in Processed Spectrum: 2048
>>>>>Begin Processed Spectral Data<<<<<
338.97	0.00
339.33	4.00
339.70	-3.00
340.06	-1.00
340.42	-2.00
340.79	-22.00
341.15	-8.00
341.52	8.00
341.88	-2.00
342.24	9.00
342.61	2.00
342.97	-8.00
343.33	1.00
343.70	15.00
344.06	-4.00
344.43	2.00
344.79	-5.00
345.15	-2.00
345.52	3.00
345.88	6.00
346.24	-8.00
346.61	-6.00
346.97	4.00
347.33	7.00
347.70	7.00
348.06	0.00
348.42	0.00
348.79	-3.00
349.15	11.00
349.51	0.00
349.88	0.00
350.24	-14.00
350.60	4.00
350.97	3.00
351.33	3.00
351.69	1.00
352.05	-12.00
352.42	-4.00
352.78	-7.00
353.14	-2.00
353.51	-6.00
353.87	-1.00
354.23	-8.00
354.60	1.00
354.96	6.00
355.32	-16.00
355.68	-2.00
356.05	-4.00
356.41	-9.00
356.77	2.00
357.13	-8.00
357.50	-3.00
357.86	-13.00
358.22	0.00
358.58	-4.00
358.95	0.00
359.31	-1.00
359.67	14.00
360.03	2.00
360.40	4.00
360.76	-4.00
361.12	-5.00
361.48	-5.00
361.85	5.00
362.21	0.00
362.57	4.00
362.93	3.00
363.29	7.00
363.66	5.00
364.02	6.00
364.38	-6.00
364.74	11.00
365.10	2.00
365.47	-6.00
365.83	4.00
366.19	-1.00
366.55	-6.00
366.91	-2.00
367.28	0.00
367.64	-4.00
368.00	-5.00
368.36	4.00
368.72	2.00
369.08	7.00
369.45	1.00
369.81	-7.00
370.17	-3.00
370.53	-5.00
370.89	-2.00
371.25	0.00
371.62	2.00
371.98	1.00
372.34	-6.00
372.70	-3.00
373.06	-6.00
373.42	4.00
373.78	-2.00
374.14	-12.00
374.51	-4.00
374.87	0.00
375.23	-3.00
375.59	1.00
375.95	-11.00
376.31	2.00
376.67	10.00
377.03	9.00
377.39	-5.00
377.76	-5.00
378.12	8.00
378.48	0.00
378.84	5.00
379.20	1.00
379.56	0.00
379.92	-4.00
380.28	0.00
380.64	-4.00
381.00	-3.00
381.36	3.00
381.72	-8.00
382.08	-5.00
382.45	4.00
382.81	-3.00
383.17	-3.00
383.53	-1.00
383.89	0.00
384.25	0.00
384.61	2.00
384.97	1.00
385.33	6.00
385.69	-7.00
386.05	-3.00
386.41	-11.00
386.77	-5.00
387.13	18.00
387.49	1.00
387.85	-9.00
388.21	9.00
388.57	3.00
388.93	-6.00
389.29	-3.00
389.65	2.00
390.01	-5.00
390.37	28.00
390.73	15.00
391.09	10.00
391.45	-3.00
391.81	1.00
392.17	-10.00
392.53	0.00
392.89	8.00
393.25	-5.00
393.61	2.00
393.97	1.00
394.33	-7.00
394.69	-1.00
395.05	-1.00
395.41	1.00
395.77	9.00
396.12	-1.00
396.48	-3.00
396.84	7.00
397.20	-8.00
397.56	5.00
397.92	8.00
398.28	2.00
398.64	10.00
399.00	-11.00
399.36	6.00
399.72	1.00
400.08	2.00
400.44	1.00
400.79	5.00
401.15	-4.00
401.51	-3.00
401.87	0.00
402.23	-3.00
402.59	11.00
402.95	8.00
403.31	3.00
403.67	-4.00
404.02	-5.00
404.38	-3.00
404.74	-1.00
405.10	-1.00
405.46	5.00
405.82	6.00
406.18	1.00
406.53	-1.00
406.89	-1.00
407.25	6.00
407.61	15.00
407.97	-4.00
408.33	6.00
408.69	3.00
409.04	7.00
409.40	3.00
409.76	-2.00
410.12	-1.00
410.48	-7.00
410.83	-1.00
411.19	9.00
411.55	2.00
411.91	0.00
412.27	2.00
412.63	-5.00
412.98	7.00
413.34	10.00
413.70	2.00
414.06	-1.00
414.41	0.00
414.77	-3.00
415.13	-1.00
415.49	7.00
415.85	-1.00
416.20	0.00
416.56	-1.00
416.92	9.00
417.28	1.00
417.63	-1.00
417.99	-1.00
418.35	2.00
418.71	4.00
419.06	-4.00
419.42	0.00
419.78	-13.00
420.14	-7.00
420.49	-3.00
420.85	-5.00
421.21	-16.00
421.57	-2.00
421.92	-6.00
422.28	-8.00
422.64	-11.00
422.99	-13.00
423.35	4.00
423.71	-8.00
424.06	-17.00
424.42	-8.00
424.78	-10.00
425.14	-15.00
425.49	-2.00
425.85	-15.00
426.21	-21.00
426.56	-2.00
426.92	-7.00
427.28	-11.00
427.63	-3.00
427.99	-10.00
428.35	-16.00
428.70	-23.00
429.06	-15.00
429.42	-13.00
429.77	-30.00
430.13	-17.00
430.49	-16.00
430.84	-17.00
431.20	-21.00
431.55	-16.00
431.91	-30.00
432.27	-33.00
432.62	-25.00
432.98	-40.00
433.34	-18.00
433.69	-27.00
434.05	-15.00
434.40	-34.00
434.76	-35.00
435.12	-18.00
435.47	-28.00
435.83	-31.00
436.18	-26.00
436.54	-42.00
436.90	-28.00
437.25	-40.00
437.61	-39.00
437.96	-40.00
438.32	-41.00
438.67	-49.00
439.03	-60.00
439.39	-54.00
439.74	-52.00
440.10	-47.00
440.45	-56.00
440.81	-55.00
441.16	-57.00
441.52	-57.00
441.87	-75.00
442.23	-74.00
442.59	-77.00
442.94	-74.00
443.30	-76.00
443.65	-73.00
444.01	-73.00
444.36	-78.00
444.72	-74.00
445.07	-89.00
445.43	-82.00
445.78	-88.00
446.14	-89.00
446.49	-69.00
446.85	-77.00
447.20	-73.00
447.56	-92.00
447.91	-96.00
448.27	-91.00
448.62	-88.00
448.98	-78.00
449.33	-98.00
449.69	-94.00
450.04	-87.00
450.39	-94.00
450.75	-85.00
451.10	-81.00
451.46	-77.00
451.81	-97.00
452.17	-83.00
452.52	-86.00
452.88	-90.00
453.23	-80.00
453.58	-81.00
453.94	-74.00
454.29	-81.00
454.65	-70.00
455.00	-60.00
455.36	-63.00
455.71	-87.00
456.06	-69.00
456.42	-61.00
456.77	-55.00
457.13	-54.00
457.48	-54.00
457.83	-63.00
458.19	-42.00
458.54	-57.00
458.90	-38.00
459.25	-54.00
459.60	-48.00
459.96	-45.00
460.31	-46.00
460.66	-26.00
461.02	-29.00
461.37	-36.00
461.73	-34.00
462.08	-43.00
462.43	-34.00
462.79	-40.00
463.14	-27.00
463.49	-45.00
463.85	-43.00
464.20	-30.00
464.55	-46.00
464.91	-30.00
465.26	-32.00
465.61	-28.00
465.97	-30.00
466.32	-28.00
466.67	-34.00
467.03	-26.00
467.38	-29.00
467.73	-31.00
468.08	-29.00
468.44	-29.00
468.79	-28.00
469.14	-24.00
469.50	-32.00
469.85	2.00
470.20	-17.00
470.55	-18.00
470.91	-33.00
471.26	-28.00
471.61	-19.00
471.97	-24.00
472.32	-23.00
472.67	-13.00
473.02	-36.00
473.38	-21.00
473.73	-9.00
474.08	-24.00
474.43	-15.00
474.78	-26.00
475.14	-25.00
475.49	-24.00
475.84	-27.00
476.19	-25.00
476.55	-13.00
476.90	-14.00
477.25	-16.00
477.60	-15.00
477.95	-16.00
478.31	-17.00
478.66	-7.00
479.01	-16.00
479.36	-16.00
479.71	-18.00
480.07	-12.00
480.42	-18.00
480.77	-25.00
481.12	-19.00
481.47	-15.00
481.82	-20.00
482.18	-24.00
482.53	-29.00
482.88	-24.00
483.23	-29.00
483.58	-4.00
483.93	-19.00
484.29	-20.00
484.64	-18.00
484.99	-12.00
485.34	-20.00
485.69	-23.00
486.04	-14.00
486.39	-20.00
486.74	-25.00
487.10	-10.00
487.45	-27.00
487.80	-16.00
488.15	-30.00
488.50	-20.00
488.85	-19.00
489.20	-31.00
489.55	-22.00
489.90	-34.00
490.26	-19.00
490.61	-26.00
490.96	-30.00
491.31	-26.00
491.66	-23.00
492.01	-26.00
492.36	-22.00
492.71	-31.00
493.06	-28.00
493.41	-29.00
493.76	-40.00
494.11	-39.00
494.46	-34.00
494.81	-22.00
495.16	-44.00
495.51	-31.00
495.86	-27.00
496.21	-40.00
496.56	-42.00
496.91	-45.00
497.27	-24.00
497.62	-33.00
497.97	-37.00
498.32	-32.00
498.67	-48.00
499.02	-27.00
499.37	-38.00
499.72	-29.00
500.07	-25.00
500.42	-36.00
500.77	-32.00
501.11	-49.00
501.46	-43.00
501.81	-47.00
502.16	-45.00
502.51	-39.00
502.86	-32.00
503.21	-39.00
503.56	-46.00
503.91	-38.00
504.26	-50.00
504.61	-44.00
504.96	-44.00
505.31	16.00
505.66	-43.00
506.01	-59.00
506.36	-49.00
506.71	-45.00
507.06	-47.00
507.41	-49.00
507.75	-46.00
508.10	-44.00
508.45	-46.00
508.80	-34.00
509.15	-29.00
509.50	-46.00
509.85	-34.00
510.20	-48.00
510.55	-48.00
510.90	-36.00
511.24	-49.00
511.59	-48.00
511.94	-33.00
512.29	-33.00
512.64	-41.00
512.99	-44.00
513.34	-50.00
513.68	-35.00
514.03	-35.00
514.38	-38.00
514.73	-32.00
515.08	-36.00
515.43	-29.00
515.77	-44.00
516.12	-31.00
516.47	-40.00
516.82	-49.00
517.17	-52.00
517.52	-48.00
517.86	-38.00
518.21	-26.00
518.56	-19.00
518.91	-40.00
519.26	-41.00
519.60	-31.00
519.95	-35.00
520.30	-50.00
520.65	-40.00
521.00	-39.00
521.34	-41.00
521.69	-36.00
522.04	-37.00
522.39	-41.00
522.73	-27.00
523.08	-50.00
523.43	-44.00
523.78	-50.00
524.12	-43.00
524.47	-45.00
524.82	-45.00
525.17	-39.00
525.51	-33.00
525.86	-27.00
526.21	-41.00
526.56	-39.00
526.90	-44.00
527.25	-47.00
527.60	-39.00
527.94	-28.00
528.29	-38.00
528.64	-34.00
528.99	-38.00
529.33	-35.00
529.68	-49.00
530.03	-37.00
530.37	-34.00
530.72	-26.00
531.07	-32.00
531.41	-39.00
531.76	-44.00
532.11	-30.00
532.45	-35.00
532.80	-49.00
533.15	-39.00
533.49	-50.00
533.84	-38.00
534.19	-26.00
534.53	-30.00
534.88	-35.00
535.23	-24.00
535.57	-36.00
535.92	-39.00
536.26	-33.00
536.61	-37.00
536.96	-43.00
537.30	-23.00
537.65	-16.00
537.99	-37.00
538.34	-31.00
538.69	-6.00
539.03	-23.00
539.38	-38.00
539.72	-33.00
540.07	-26.00
540.42	-27.00
540.76	-24.00
541.11	-28.00
541.45	-37.00
541.80	0.00
542.14	-29.00
542.49	-25.00
542.84	-39.00
543.18	-24.00
543.53	-29.00
543.87	-29.00
544.22	-30.00
544.56	-35.00
544.91	-30.00
545.25	-45.00
545.60	-31.00
545.94	-19.00
546.29	-26.00
546.63	-27.00
546.98	-15.00
547.32	-25.00
547.67	-27.00
548.01	-26.00
548.36	-30.00
548.70	-26.00
549.05	-37.00
549.39	-28.00
549.74	-10.00
550.08	-28.00
550.43	-11.00
550.77	-22.00
551.12	-18.00
551.46	-28.00
551.81	-39.00
552.15	-35.00
552.50	-16.00
552.84	-7.00
553.18	-30.00
553.53	-10.00
553.87	-26.00
554.22	-31.00
554.56	-18.00
554.91	-20.00
555.25	-22.00
555.59	-19.00
555.94	-26.00
556.28	-24.00
556.63	-25.00
556.97	-19.00
557.32	-33.00
557.66	-22.00
558.00	-22.00
558.35	-25.00
558.69	-26.00
559.03	-21.00
559.38	-20.00
559.72	-16.00
560.07	-31.00
560.41	-30.00
560.75	-22.00
561.10	-24.00
561.44	-21.00
561.78	-22.00
562.13	-17.00
562.47	-14.00
562.81	-9.00
563.16	-21.00
563.50	-25.00
563.84	-18.00
564.19	-29.00
564.53	2.00
564.87	-4.00
565.22	-12.00
565.56	-14.00
565.90	-13.00
566.25	-31.00
566.59	-12.00
566.93	-17.00
567.28	-3.00
567.62	-8.00
567.96	-20.00
568.30	-13.00
568.65	-17.00
568.99	-13.00
569.33	-14.00
569.68	-21.00
570.02	-21.00
570.36	-17.00
570.70	-16.00
571.05	-14.00
571.39	-19.00
571.73	-18.00
572.07	-22.00
572.42	-9.00
572.76	-24.00
573.10	-5.00
573.44	-12.00
573.78	-3.00
574.13	-20.00
574.47	0.00
574.81	-2.00
575.15	-2.00
575.49	-10.00
575.84	-11.00
576.18	-16.00
576.52	-7.00
576.86	-11.00
577.20	0.00
577.55	-658.00
577.89	-31.00
578.23	12.00
578.57	17.00
578.91	-1.00
579.25	-5.00
579.60	0.00
579.94	-7.00
580.28	-10.00
580.62	-12.00
580.96	-10.00
581.30	-11.00
581.65	-6.00
581.99	-1.00
582.33	-13.00
582.67	-7.00
583.01	4.00
583.35	2.00
583.69	-4.00
584.03	-3.00
584.37	-4.00
584.72	-1.00
585.06	-9.00
585.40	-2.00
585.74	-16.00
586.08	-4.00
586.42	-12.00
586.76	0.00
587.10	2.00
587.44	-13.00
587.78	0.00
588.12	-13.00
588.46	2.00
588.80	-4.00
589.15	-10.00
589.49	-4.00
589.83	-3.00
590.17	-3.00
590.51	1.00
590.85	-2.00
591.19	-1.00
591.53	-2.00
591.87	2.00
592.21	0.00
592.55	8.00
592.89	-8.00
593.23	3.00
593.57	5.00
593.91	0.00
594.25	3.00
594.59	5.00
594.93	-4.00
595.27	-9.00
595.61	7.00
595.95	-1.00
596.29	12.00
596.63	-3.00
596.97	1.00
597.31	6.00
597.65	13.00
597.99	-1.00
598.32	-8.00
598.66	4.00
599.00	5.00
599.34	3.00
599.68	13.00
600.02	21.00
600.36	6.00
600.70	4.00
601.04	8.00
601.38	16.00
601.72	4.00
602.06	-4.00
602.40	2.00
602.73	12.00
603.07	8.00
603.41	2.00
603.75	4.00
604.09	13.00
604.43	12.00
604.77	2.00
605.11	6.00
605.45	6.00
605.78	-111.00
606.12	5.00
606.46	11.00
606.80	7.00
607.14	11.00
607.48	19.00
607.81	4.00
608.15	4.00
608.49	5.00
608.83	14.00
609.17	3.00
609.51	11.00
609.84	5.00
610.18	15.00
610.52	3.00
610.86	3.00
611.20	11.00
611.53	9.00
611.87	2.00
612.21	8.00
612.55	18.00
612.89	18.00
613.22	12.00
613.56	20.00
613.90	33.00
614.24	6.00
614.57	19.00
614.91	5.00
615.25	16.00
615.59	11.00
615.92	21.00
616.26	16.00
616.60	24.00
616.94	26.00
617.27	11.00
617.61	24.00
617.95	8.00
618.29	27.00
618.62	21.00
618.96	18.00
619.30	14.00
619.63	20.00
619.97	23.00
620.31	23.00
620.64	17.00
620.98	27.00
621.32	5.00
621.66	27.00
621.99	25.00
622.33	26.00
622.67	29.00
623.00	23.00
623.34	30.00
623.68	25.00
624.01	25.00
624.35	37.00
624.68	27.00
625.02	23.00
625.36	18.00
625.69	33.00
626.03	20.00
626.37	33.00
626.70	29.00
627.04	16.00
627.37	20.00
627.71	25.00
628.05	34.00
628.38	24.00
628.72	24.00
629.05	27.00
629.39	28.00
629.73	35.00
630.06	31.00
630.40	135.00
630.73	29.00
631.07	27.00
631.41	35.00
631.74	28.00
632.08	36.00
632.41	34.00
632.75	29.00
633.08	36.00
633.42	40.00
633.75	36.00
634.09	34.00
634.42	33.00
634.76	32.00
635.09	34.00
635.43	39.00
635.76	29.00
636.10	33.00
636.43	36.00
636.77	20.00
637.10	42.00
637.44	34.00
637.77	32.00
638.11	33.00
638.44	30.00
638.78	42.00
639.11	46.00
639.45	31.00
639.78	37.00
640.12	46.00
640.45	38.00
640.79	36.00
641.12	46.00
641.46	35.00
641.79	36.00
642.12	39.00
642.46	40.00
642.79	47.00
643.13	51.00
643.46	44.00
643.80	47.00
644.13	27.00
644.46	42.00
644.80	50.00
645.13	29.00
645.47	48.00
645.80	58.00
646.13	46.00
646.47	49.00
646.80	47.00
647.13	44.00
647.47	55.00
647.80	62.00
648.14	56.00
648.47	50.00
648.80	58.00
649.14	60.00
649.47	51.00
649.80	53.00
650.14	58.00
650.47	59.00
650.80	59.00
651.14	62.00
651.47	68.00
651.80	58.00
652.14	62.00
652.47	71.00
652.80	73.00
653.14	65.00
653.47	87.00
653.80	65.00
654.13	57.00
654.47	80.00
654.80	71.00
655.13	94.00
655.47	80.00
655.80	82.00
656.13	88.00
656.46	75.00
656.80	80.00
657.13	85.00
657.46	80.00
657.79	79.00
658.13	87.00
658.46	96.00
658.79	92.00
659.12	107.00
659.45	110.00
659.79	101.00
660.12	106.00
660.45	111.00
660.78	121.00
661.12	112.00
661.45	113.00
661.78	125.00
662.11	126.00
662.44	120.00
662.77	132.00
663.11	132.00
663.44	147.00
663.77	147.00
664.10	150.00
664.43	144.00
664.77	141.00
665.10	154.00
665.43	161.00
665.76	164.00
666.09	158.00
666.42	166.00
666.75	159.00
667.08	185.00
667.42	186.00
667.75	169.00
668.08	201.00
668.41	188.00
668.74	190.00
669.07	217.00
669.40	209.00
669.73	220.00
670.06	235.00
670.40	237.00
670.73	225.00
671.06	234.00
671.39	251.00
671.72	258.00
672.05	256.00
672.38	259.00
672.71	259.00
673.04	286.00
673.37	290.00
673.70	290.00
674.03	296.00
674.36	304.00
674.69	308.00
675.02	319.00
675.35	334.00
675.68	317.00
676.01	350.00
676.34	340.00
676.67	359.00
677.00	372.00
677.33	373.00
677.66	381.00
677.99	404.00
678.32	419.00
678.65	409.00
678.98	441.00
679.31	467.00
679.64	425.00
679.97	450.00
680.30	473.00
680.63	455.00
680.96	497.00
681.29	500.00
681.62	500.00
681.95	496.00
682.28	517.00
682.61	513.00
682.94	539.00
683.27	544.00
683.60	569.00
683.93	584.00
684.25	583.00
684.58	591.00
684.91	603.00
685.24	608.00
685.57	637.00
685.90	658.00
686.23	664.00
686.56	696.00
686.89	680.00
687.21	707.00
687.54	716.00
687.87	726.00
688.20	751.00
688.53	750.00
688.86	760.00
689.19	769.00
689.51	822.00
689.84	820.00
690.17	846.00
690.50	836.00
690.83	872.00
691.16	878.00
691.48	874.00
691.81	903.00
692.14	914.00
692.47	956.00
692.80	945.00
693.12	977.00
693.45	948.00
693.78	989.00
694.11	980.00
694.44	1010.00
694.76	1029.00
695.09	1023.00
695.42	1054.00
695.75	1043.00
696.07	1085.00
696.40	1104.00
696.73	1110.00
697.06	1131.00
697.38	1129.00
697.71	1145.00
698.04	1159.00
698.37	1164.00
698.69	1177.00
699.02	1185.00
699.35	1242.00
699.67	1219.00
700.00	1252.00
700.33	1221.00
700.66	1272.00
700.98	1289.00
701.31	1305.00
701.64	1286.00
701.96	1303.00
702.29	1331.00
702.62	1347.00
702.94	1336.00
703.27	1370.00
703.60	1372.00
703.92	1346.00
704.25	1401.00
704.58	1386.00
704.90	1393.00
705.23	1385.00
705.56	1435.00
705.88	1427.00
706.21	1429.00
706.53	1444.00
706.86	1462.00
707.19	1466.00
707.51	1461.00
707.84	1461.00
708.16	1465.00
708.49	1530.00
708.82	1512.00
709.14	1500.00
709.47	1530.00
709.79	1529.00
710.12	1541.00
710.45	1555.00
710.77	1538.00
711.10	1565.00
711.42	1534.00
711.75	1558.00
712.07	1572.00
712.40	1591.00
712.72	1493.00
713.05	1563.00
713.37	1561.00
713.70	1573.00
714.03	1602.00
714.35	1607.00
714.68	1618.00
715.00	1610.00
715.33	1639.00
715.65	1623.00
715.98	1609.00
716.30	1625.00
716.63	1610.00
716.95	1592.00
717.28	1630.00
717.60	1634.00
717.92	1615.00
718.25	1615.00
718.57	1635.00
718.90	1618.00
719.22	1611.00
719.55	1643.00
719.87	1612.00
720.20	1607.00
720.52	1637.00
720.84	1596.00
721.17	1593.00
721.49	1596.00
721.82	1617.00
722.14	1608.00
722.47	1616.00
722.79	1595.00
723.11	1584.00
723.44	1589.00
723.76	1639.00
724.09	1577.00
724.41	1590.00
724.73	1607.00
725.06	1593.00
725.38	1607.00
725.70	1636.00
726.03	1658.00
726.35	1639.00
726.67	1626.00
727.00	1653.00
727.32	1668.00
727.65	1617.00
727.97	1638.00
728.29	1678.00
728.61	1623.00
728.94	1623.00
729.26	1613.00
729.58	1636.00
729.91	1626.00
730.23	1663.00
730.55	1636.00
730.88	1675.00
731.20	1655.00
731.52	1656.00
731.84	1627.00
732.17	1644.00
732.49	1626.00
732.81	1642.00
733.14	1632.00
733.46	1637.00
733.78	1659.00
734.10	1633.00
734.43	1653.00
734.75	1648.00
735.07	1618.00
735.39	1652.00
735.72	1647.00
736.04	1629.00
736.36	1657.00
736.68	1645.00
737.00	1637.00
737.33	1647.00
737.65	1645.00
737.97	1672.00
738.29	1679.00
738.61	1647.00
738.94	1664.00
739.26	1664.00
739.58	1601.00
739.90	1665.00
740.22	1617.00
740.54	1642.00
740.87	1675.00
741.19	1636.00
741.51	1665.00
741.83	1648.00
742.15	1646.00
742.47	1680.00
742.79	1655.00
743.12	1641.00
743.44	1654.00
743.76	1661.00
744.08	1634.00
744.40	1640.00
744.72	1655.00
745.04	1653.00
745.36	1648.00
745.68	1672.00
746.00	1676.00
746.33	1686.00
746.65	1660.00
746.97	1631.00
747.29	1640.00
747.61	1641.00
747.93	1651.00
748.25	1622.00
748.57	1616.00
748.89	1642.00
749.21	1663.00
749.53	1640.00
749.85	1667.00
750.17	1643.00
750.49	1635.00
750.81	1626.00
751.13	1647.00
751.45	1621.00
751.77	1645.00
752.09	1644.00
752.41	1630.00
752.73	1624.00
753.05	1639.00
753.37	1644.00
753.69	1671.00
754.01	1641.00
754.33	1637.00
754.65	1643.00
754.97	1637.00
755.29	1653.00
755.61	1624.00
755.93	1667.00
756.25	1592.00
756.57	1624.00
756.89	1635.00
757.21	1668.00
757.53	1633.00
757.84	1638.00
758.16	1625.00
758.48	1641.00
758.80	1618.00
759.12	1641.00
759.44	1615.00
759.76	1649.00
760.08	1633.00
760.40	1620.00
760.71	1644.00
761.03	1628.00
761.35	1619.00
761.67	1635.00
761.99	1636.00
762.31	1623.00
762.63	1609.00
762.94	1648.00
763.26	1648.00
763.58	1622.00
763.90	1639.00
764.22	1633.00
764.54	1629.00
764.85	1635.00
765.17	1617.00
765.49	1659.00
765.81	1636.00
766.13	1601.00
766.44	1631.00
766.76	1620.00
767.08	1666.00
767.40	1641.00
767.72	1639.00
768.03	1668.00
768.35	1610.00
768.67	1634.00
768.99	1600.00
769.30	1649.00
769.62	1629.00
769.94	1609.00
770.26	1627.00
770.57	1641.00
770.89	1663.00
771.21	1619.00
771.53	1625.00
771.84	1666.00
772.16	1631.00
772.48	1600.00
772.79	1594.00
773.11	1625.00
773.43	1614.00
773.75	1654.00
774.06	1639.00
774.38	1629.00
774.70	1640.00
775.01	1621.00
775.33	1645.00
775.65	1598.00
775.96	1605.00
776.28	1623.00
776.59	1597.00
776.91	1600.00
777.23	1618.00
777.54	1604.00
777.86	1608.00
778.18	1641.00
778.49	1666.00
778.81	1613.00
779.13	1604.00
779.44	1615.00
779.76	1624.00
780.07	1650.00
780.39	1607.00
780.71	1609.00
781.02	1597.00
781.34	1607.00
781.65	1596.00
781.97	1612.00
782.28	1602.00
782.60	1613.00
782.91	1585.00
783.23	1595.00
783.55	1598.00
783.86	1592.00
784.18	1596.00
784.49	1611.00
784.81	1611.00
785.12	1596.00
785.44	1622.00
785.75	1590.00
786.07	1592.00
786.38	1574.00
786.70	1609.00
787.01	1590.00
787.33	1599.00
787.64	1623.00
787.96	1632.00
788.27	1629.00
788.59	1646.00
788.90	1605.00
789.22	1620.00
789.53	1654.00
789.85	1653.00
790.16	1640.00
790.47	1645.00
790.79	1650.00
791.10	1626.00
791.42	1645.00
791.73	1688.00
792.05	1692.00
792.36	1667.00
792.67	1648.00
792.99	1688.00
793.30	1676.00
793.62	1669.00
793.93	1656.00
794.24	1676.00
794.56	1652.00
794.87	1710.00
795.18	1722.00
795.50	1727.00
795.81	1695.00
796.13	1726.00
796.44	1726.00
796.75	1689.00
797.07	1714.00
797.38	1737.00
797.69	1720.00
798.01	1703.00
798.32	1743.00
798.63	1733.00
798.95	1753.00
799.26	1711.00
799.57	1739.00
799.89	1730.00
800.20	1749.00
800.51	1751.00
800.82	1732.00
801.14	1696.00
801.45	1782.00
801.76	1785.00
802.08	1754.00
802.39	1754.00
802.70	1785.00
803.01	1744.00
803.33	1746.00
803.64	1745.00
803.95	1741.00
804.26	1764.00
804.57	1769.00
804.89	1748.00
805.20	1784.00
805.51	1761.00
805.82	1787.00
806.14	1771.00
806.45	1081.00
806.76	2170.00
807.07	1758.00
807.38	1788.00
807.70	1755.00
808.01	1759.00
808.32	1766.00
808.63	1758.00
808.94	1748.00
809.25	1738.00
809.57	1779.00
809.88	1772.00
810.19	1753.00
810.50	1789.00
810.81	1762.00
811.12	1766.00
811.43	1777.00
811.75	1733.00
812.06	1716.00
812.37	1746.00
812.68	1722.00
812.99	1788.00
813.30	1721.00
813.61	1766.00
813.92	1765.00
814.23	1740.00
814.54	1742.00
814.85	1734.00
815.17	1757.00
815.48	1771.00
815.79	1742.00
816.10	1717.00
816.41	1739.00
816.72	1711.00
817.03	1753.00
817.34	1722.00
817.65	1755.00
817.96	1734.00
818.27	1764.00
818.58	1759.00
818.89	1723.00
819.20	1757.00
819.51	1722.00
819.82	1720.00
820.13	1734.00
820.44	1706.00
820.75	1732.00
821.06	1717.00
821.37	1735.00
821.68	1769.00
821.99	1727.00
822.30	1730.00
822.61	1706.00
822.92	1740.00
823.23	1773.00
823.54	1733.00
823.85	1804.00
824.15	1777.00
824.46	1763.00
824.77	1721.00
825.08	1729.00
825.39	1732.00
825.70	1698.00
826.01	1731.00
826.32	1693.00
826.63	1725.00
826.94	1734.00
827.24	1721.00
827.55	1728.00
827.86	1771.00
828.17	1756.00
828.48	1708.00
828.79	1779.00
829.10	1717.00
829.41	1735.00
829.71	1688.00
830.02	1723.00
830.33	1755.00
830.64	1779.00
830.95	1774.00
831.25	1708.00
831.56	1771.00
831.87	1730.00
832.18	1750.00
832.49	1759.00
832.80	1760.00
833.10	1749.00
833.41	1757.00
833.72	1728.00
834.03	1774.00
834.33	1759.00
834.64	1771.00
834.95	1754.00
835.26	1769.00
835.56	1810.00
835.87	1755.00
836.18	1761.00
836.49	1777.00
836.79	1774.00
837.10	1757.00
837.41	1771.00
837.72	1763.00
838.02	1771.00
838.33	1795.00
838.64	1741.00
838.94	1730.00
839.25	1765.00
839.56	1736.00
839.86	1784.00
840.17	1758.00
840.48	1817.00
840.78	1776.00
841.09	1767.00
841.40	1859.00
841.70	1792.00
842.01	1745.00
842.32	1789.00
842.62	1852.00
842.93	1801.00
843.24	1774.00
843.54	1783.00
843.85	1796.00
844.15	1806.00
844.46	1778.00
844.77	1783.00
845.07	1818.00
845.38	1790.00
845.68	1832.00
845.99	1812.00
846.30	1816.00
846.60	1839.00
846.91	1795.00
847.21	1832.00
847.52	1812.00
847.82	1843.00
848.13	1813.00
848.43	1811.00
848.74	1884.00
849.05	1845.00
849.35	1861.00
849.66	1854.00
849.96	1859.00
850.27	1875.00
850.57	1829.00
850.88	1861.00
851.18	1845.00
851.49	1838.00
851.79	1859.00
852.10	1849.00
852.40	1870.00
852.71	1823.00
853.01	1868.00
853.32	1844.00
853.62	1850.00
853.92	1838.00
854.23	1875.00
854.53	1841.00
854.84	1837.00
855.14	1810.00
855.45	1877.00
855.75	1896.00
856.05	1909.00
856.36	1869.00
856.66	1880.00
856.97	1887.00
857.27	1893.00
857.57	1881.00
857.88	1847.00
858.18	1865.00
858.49	1872.00
858.79	1902.00
859.09	1883.00
859.40	1855.00
859.70	1856.00
860.00	1905.00
860.31	1858.00
860.61	1851.00
860.92	1909.00
861.22	1900.00
861.52	1900.00
861.82	1896.00
862.13	1864.00
862.43	1878.00
862.73	1878.00
863.04	1910.00
863.34	1898.00
863.64	1929.00
863.95	1879.00
864.25	1864.00
864.55	1915.00
864.85	1882.00
865.16	1899.00
865.46	1848.00
865.76	1867.00
866.07	1927.00
866.37	1909.00
866.67	1887.00
866.97	1870.00
867.27	1918.00
867.58	1867.00
867.88	1911.00
868.18	1886.00
868.48	1893.00
868.79	1904.00
869.09	1877.00
869.39	1904.00
869.69	1858.00
869.99	1871.00
870.30	1870.00
870.60	1834.00
870.90	1871.00
871.20	1852.00
871.50	1861.00
871.80	1840.00
872.11	1848.00
872.41	1889.00
872.71	1824.00
873.01	1834.00
873.31	1813.00
873.61	1761.00
873.91	1833.00
874.21	1819.00
874.52	1782.00
874.82	1744.00
875.12	1776.00
875.42	1813.00
875.72	1748.00
876.02	1776.00
876.32	1775.00
876.62	1751.00
876.92	1763.00
877.22	1784.00
877.52	1762.00
877.83	1749.00
878.13	1752.00
878.43	1746.00
878.73	1764.00
879.03	1805.00
879.33	1765.00
879.63	1776.00
879.93	1751.00
880.23	1759.00
880.53	1758.00
880.83	1738.00
881.13	1758.00
881.43	1815.00
881.73	1790.00
882.03	1794.00
882.33	1811.00
882.63	1829.00
882.93	1815.00
883.23	1815.00
883.53	1776.00
883.83	1837.00
884.13	1793.00
884.42	1766.00
884.72	1820.00
885.02	1834.00
885.32	1789.00
885.62	1836.00
885.92	1774.00
886.22	1817.00
886.52	1825.00
886.82	1836.00
887.12	1853.00
887.42	1842.00
887.72	1877.00
888.01	1832.00
888.31	1864.00
888.61	1854.00
888.91	1847.00
889.21	1841.00
889.51	1875.00
889.81	1870.00
890.10	1811.00
890.40	1849.00
890.70	1839.00
891.00	1858.00
891.30	1886.00
891.60	1901.00
891.89	1850.00
892.19	1895.00
892.49	1886.00
892.79	1853.00
893.09	1919.00
893.38	1888.00
893.68	1865.00
893.98	1861.00
894.28	1860.00
894.58	1890.00
894.87	1839.00
895.17	1861.00
895.47	1872.00
895.77	1882.00
896.06	1910.00
896.36	1884.00
896.66	1862.00
896.96	1857.00
897.25	1878.00
897.55	1917.00
897.85	1854.00
898.14	1850.00
898.44	1866.00
898.74	1864.00
899.04	1838.00
899.33	1837.00
899.63	1829.00
899.93	1805.00
900.22	1853.00
900.52	1876.00
900.82	1830.00
901.11	1830.00
901.41	1857.00
901.71	1865.00
902.00	1827.00
902.30	1859.00
902.59	1841.00
902.89	1828.00
903.19	1790.00
903.48	1826.00
903.78	1793.00
904.08	1787.00
904.37	1819.00
904.67	1836.00
904.96	1814.00
905.26	1770.00
905.55	1787.00
905.85	1785.00
906.15	1795.00
906.44	1800.00
906.74	1784.00
907.03	1757.00
907.33	1756.00
907.62	1737.00
907.92	1721.00
908.21	1808.00
908.51	1732.00
908.80	1739.00
909.10	1745.00
909.40	1734.00
909.69	1722.00
909.99	1683.00
910.28	1697.00
910.57	1714.00
910.87	1641.00
911.16	1673.00
911.46	1687.00
911.75	1639.00
912.05	1659.00
912.34	1682.00
912.64	1651.00
912.93	1614.00
913.23	1650.00
913.52	1613.00
913.82	1606.00
914.11	1630.00
914.40	1576.00
914.70	1609.00
914.99	1600.00
915.29	1548.00
915.58	1573.00
915.87	1551.00
916.17	1549.00
916.46	1535.00
916.76	1515.00
917.05	1509.00
917.34	1510.00
917.64	1480.00
917.93	1450.00
918.22	1474.00
918.52	1460.00
918.81	1465.00
919.10	1429.00
919.40	1441.00
919.69	1434.00
919.98	1408.00
920.28	1416.00
920.57	1380.00
920.86	1387.00
921.16	1389.00
921.45	1350.00
921.74	1366.00
922.04	1340.00
922.33	1335.00
922.62	1341.00
922.91	1313.00
923.21	1302.00
923.50	1284.00
923.79	1234.00
924.08	1281.00
924.38	1265.00
924.67	1244.00
924.96	1262.00
925.25	1223.00
925.55	1193.00
925.84	1187.00
926.13	1192.00
926.42	1205.00
926.71	1169.00
927.01	1137.00
927.30	1128.00
927.59	1147.00
927.88	1136.00
928.17	1129.00
928.46	1115.00
928.76	1091.00
929.05	1059.00
929.34	1076.00
929.63	1067.00
929.92	1061.00
930.21	1014.00
930.50	1020.00
930.80	1011.00
931.09	1013.00
931.38	954.00
931.67	966.00
931.96	939.00
932.25	909.00
932.54	896.00
932.83	920.00
933.12	874.00
933.41	852.00
933.71	825.00
934.00	791.00
934.29	790.00
934.58	782.00
934.87	746.00
935.16	723.00
935.45	684.00
935.74	661.00
936.03	640.00
936.32	620.00
936.61	590.00
936.90	566.00
937.19	544.00
937.48	513.00
937.77	486.00
938.06	470.00
938.35	457.00
938.64	433.00
938.93	434.00
939.22	423.00
939.51	382.00
939.80	374.00
940.09	367.00
940.38	342.00
940.67	356.00
940.96	315.00
941.25	294.00
941.53	309.00
941.82	305.00
942.11	309.00
942.40	301.00
942.69	293.00
942.98	283.00
943.27	304.00
943.56	291.00
943.85	290.00
944.14	283.00
944.42	297.00
944.71	289.00
945.00	305.00
945.29	282.00
945.58	298.00
945.87	292.00
946.16	278.00
946.44	296.00
946.73	292.00
947.02	298.00
947.31	300.00
947.60	313.00
947.89	296.00
948.17	309.00
948.46	314.00
948.75	309.00
949.04	317.00
949.32	338.00
949.61	333.00
949.90	328.00
950.19	330.00
950.48	330.00
950.76	342.00
951.05	330.00
951.34	340.00
951.63	348.00
951.91	380.00
952.20	359.00
952.49	347.00
952.77	352.00
953.06	371.00
953.35	384.00
953.64	368.00
953.92	373.00
954.21	387.00
954.50	389.00
954.78	401.00
955.07	408.00
955.36	386.00
955.64	403.00
955.93	395.00
956.22	411.00
956.50	418.00
956.79	418.00
957.08	417.00
957.36	424.00
957.65	418.00
957.93	417.00
958.22	424.00
958.51	414.00
958.79	413.00
959.08	420.00
959.36	426.00
959.65	444.00
959.94	447.00
960.22	433.00
960.51	443.00
960.79	464.00
961.08	438.00
961.36	424.00
961.65	441.00
961.94	439.00
962.22	434.00
962.51	435.00
962.79	445.00
963.08	449.00
963.36	429.00
963.65	421.00
963.93	436.00
964.22	432.00
964.50	440.00
964.79	451.00
965.07	431.00
965.36	427.00
965.64	451.00
965.93	438.00
966.21	424.00
966.49	429.00
966.78	440.00
967.06	456.00
967.35	441.00
967.63	430.00
967.92	429.00
968.20	435.00
968.48	432.00
968.77	420.00
969.05	414.00
969.34	275.00
969.62	404.00
969.90	431.00
970.19	426.00
970.47	415.00
970.76	408.00
971.04	409.00
971.32	393.00
971.61	410.00
971.89	419.00
972.17	409.00
972.46	400.00
972.74	425.00
973.02	404.00
973.31	410.00
973.59	405.00
973.87	417.00
974.16	396.00
974.44	401.00
974.72	399.00
975.00	391.00
975.29	396.00
975.57	380.00
975.85	377.00
976.14	381.00
976.42	381.00
976.70	361.00
976.98	389.00
977.27	387.00
977.55	387.00
977.83	374.00
978.11	382.00
978.39	382.00
978.68	376.00
978.96	373.00
979.24	383.00
979.52	348.00
979.81	358.00
980.09	365.00
980.37	373.00
980.65	354.00
980.93	362.00
981.21	358.00
981.50	352.00
981.78	340.00
982.06	352.00
982.34	359.00
982.62	345.00
982.90	341.00
983.18	355.00
983.47	334.00
983.75	324.00
984.03	310.00
984.31	321.00
984.59	342.00
984.87	325.00
985.15	310.00
985.43	324.00
985.71	312.00
985.99	322.00
986.27	307.00
986.55	305.00
986.84	315.00
987.12	312.00
987.40	299.00
987.68	296.00
987.96	304.00
988.24	299.00
988.52	290.00
988.80	319.00
989.08	290.00
989.36	284.00
989.64	292.00
989.92	302.00
990.20	282.00
990.48	272.00
990.76	303.00
991.04	291.00
991.32	277.00
991.60	281.00
991.88	290.00
992.16	280.00
992.43	278.00
992.71	287.00
992.99	260.00
993.27	1697.00
993.55	320.00
993.83	261.00
994.11	255.00
994.39	259.00
994.67	258.00
994.95	269.00
995.23	262.00
995.50	252.00
995.78	246.00
996.06	284.00
996.34	253.00
996.62	249.00
996.90	250.00
997.18	240.00
997.45	230.00
997.73	237.00
998.01	232.00
998.29	235.00
998.57	228.00
998.85	231.00
999.12	221.00
999.40	248.00
999.68	235.00
999.96	227.00
1000.24	245.00
1000.51	223.00
1000.79	224.00
1001.07	224.00
1001.35	215.00
1001.62	223.00
1001.90	197.00
1002.18	198.00
1002.46	207.00
1002.73	196.00
1003.01	204.00
1003.29	203.00
1003.56	199.00
1003.84	194.00
1004.12	199.00
1004.40	197.00
1004.67	182.00
1004.95	189.00
>>>>>End Processed Spectral Data<<<<<
